======================================================================
RELATÓRIO DE ANÁLISE REOLÓGICA
======================================================================
Sessão: 20251026_001351
Data da Geração: 2025-10-26 00:14:13
Pasta de Saída: resultados_analise_reologica\FC0.2804-Caulim40%H2O-Capilar3x64_20251026_001351

--- PARÂMETROS GLOBAIS DO ENSAIO ---
Densidade da Pasta: 1.630 g/cm³
Tempo de Extrusão: Variável (ver tabela)
Fator de Calibração Empírico Aplicado: 0.2804

--- ORIGEM DOS DADOS EXPERIMENTAIS ---
Método de Entrada: Arquivo(s) JSON
  Arquivos JSON Utilizados (da pasta 'resultados_testes_reometro/'):
    - edit_Caulim40%H2O-Capilar3x64-Ensaio1_20251019_174146.json

--- CONFIGURAÇÃO DE CORREÇÕES E CALIBRAÇÃO ---
Correção de Bagley (ao vivo): Não
Correção de Mooney (ao vivo): Não

--- GEOMETRIA DO CAPILAR ÚNICO (SEM CORREÇÕES) ---
Diâmetro: 3.000 mm
Comprimento: 64.00 mm

--- RESULTADOS PRINCIPAIS (CURVA DE FLUXO PROCESSADA) ---
Ponto D_cap(mm) L_cap(mm) rho(g/cm³) t_ext(s) P_ext(bar) M_ext(g) Q_calc(mm³/s)  τw (Pa) γ̇aw (s⁻¹) ηa (Pa·s) γ̇w (s⁻¹) η (Pa·s)
    1     3.000     64.00     1.6300   6.9646     0.4088   1.2100      106.5862 134.3439    40.2103    3.3410   62.5078   2.1492
    2     3.000     64.00     1.6300  18.3012     0.5194   4.7300      158.5599 170.6709    59.8177    2.8532   92.9879   1.8354
    3     3.000     64.00     1.6300  18.2976     0.5275   4.7600      159.5971 173.3360    60.2090    2.8789   93.5962   1.8520
    4     3.000     64.00     1.6300  18.6431     0.5365   4.8600      159.9303 176.2923    60.3347    2.9219   93.7916   1.8796
    5     3.000     64.00     1.6300  18.2969     0.5134   4.8800      163.6269 168.7090    61.7292    2.7330   95.9594   1.7581
    6     3.000     64.00     1.6300  18.6363     0.5290   5.0700      166.9018 173.8322    62.9647    2.7608   97.8800   1.7760
    7     3.000     64.00     1.6300  18.3052     0.5185   5.0000      167.5744 170.3852    63.2185    2.6952   98.2745   1.7338
    8     3.000     64.00     1.6300  18.4131     0.5331   5.1400      171.2567 175.1868    64.6077    2.7115  100.4340   1.7443
    9     3.000     64.00     1.6300  17.0659     0.5428   4.8100      172.9130 178.3611    65.2325    2.7342  101.4053   1.7589
   10     3.000     64.00     1.6300  18.4137     0.5239   5.2300      174.2501 172.1402    65.7369    2.6186  102.1894   1.6845
   11     3.000     64.00     1.6300  18.2976     0.5405   5.2300      175.3561 177.5912    66.1542    2.6845  102.8381   1.7269
   12     3.000     64.00     1.6300  18.4082     0.5445   5.7500      191.6322 178.9231    72.2944    2.4749  112.3832   1.5921
   13     3.000     64.00     1.6300  18.2958     0.5704   5.7700      193.4805 187.4238    72.9917    2.5677  113.4672   1.6518
   14     3.000     64.00     1.6300  18.4207     0.5547   5.9400      197.8306 182.2865    74.6328    2.4424  116.0183   1.5712
   15     3.000     64.00     1.6300  18.3112     0.5634   6.0000      201.0236 185.1218    75.8374    2.4410  117.8908   1.5703
   16     3.000     64.00     1.6300  18.4049     0.5774   6.2300      207.6667 189.7185    78.3435    2.4216  121.7867   1.5578
   17     3.000     64.00     1.6300  18.2995     0.6465   7.8000      261.4979 212.4196    98.6517    2.1532  153.3561   1.3851
   18     3.000     64.00     1.6300  18.2493     0.6638   8.1900      275.3276 218.1234   103.8690    2.1000  161.4666   1.3509
   19     3.000     64.00     1.6300  18.3059     0.6850   8.4400      282.8553 225.0874   106.7089    2.1094  165.8812   1.3569
   20     3.000     64.00     1.6300  18.2970     0.6682   8.6000      288.3578 219.5704   108.7848    2.0184  169.1082   1.2984
   21     3.000     64.00     1.6300  18.1829     0.6735   8.6700      292.5292 221.2939   110.3584    2.0052  171.5545   1.2899
   22     3.000     64.00     1.6300  10.4425     1.3428  26.5400     1559.2289 441.2196   588.2287    0.7501  914.4139   0.4825
   23     3.000     64.00     1.6300  10.4430     1.1929  27.8900     1638.4650 391.9723   618.1210    0.6341  960.8822   0.4079
   24     3.000     64.00     1.6300  10.7775     1.3526  29.0700     1654.7782 444.4609   624.2753    0.7120  970.4491   0.4580
   25     3.000     64.00     1.6300  10.4419     1.3435  28.4900     1673.8851 441.4817   631.4835    0.6991  981.6544   0.4497
   26     3.000     64.00     1.6300  10.4463     1.2350  29.3800     1725.4439 405.8129   650.9343    0.6234 1011.8911   0.4010
   27     3.000     64.00     1.6300  10.4423     1.2556  29.8400     1753.1276 412.5940   661.3782    0.6238 1028.1263   0.4013
   28     3.000     64.00     1.6300  10.4480     1.2686  34.1300     2004.0732 416.8444   756.0490    0.5513 1175.2940   0.3547
   29     3.000     64.00     1.6300  10.4298     1.3797  35.5200     2089.3464 453.3545   788.2188    0.5752 1225.3028   0.3700
   30     3.000     64.00     1.6300   4.7295     1.4563  29.4300     3817.5650 478.5289  1440.1999    0.3323 2238.8211   0.2137
   31     3.000     64.00     1.6300   4.6111     1.4730  31.8300     4234.9586 484.0223  1597.6642    0.3030 2483.6027   0.1949
   32     3.000     64.00     1.6300   5.4002     1.4904  38.6400     4389.7260 489.7331  1656.0512    0.2957 2574.3665   0.1902
   33     3.000     64.00     1.6300   5.2899     1.4676  39.1200     4536.9579 482.2355  1711.5953    0.2817 2660.7110   0.1812
   34     3.000     64.00     1.6300   5.2850     1.4587  41.4200     4808.1380 479.3142  1813.8997    0.2642 2819.7453   0.1700
   35     3.000     64.00     1.6300   5.4029     1.5146  58.4900     6641.4876 497.6878  2505.5421    0.1986 3894.9180   0.1278
   36     3.000     64.00     1.6300   5.4037     1.5561  59.0400     6702.9522 511.3282  2528.7300    0.2022 3930.9641   0.1301
   37     3.000     64.00     1.6300   5.5131     1.6122  61.2700     6818.1589 529.7523  2572.1924    0.2060 3998.5274   0.1325
   38     3.000     64.00     1.6300   5.1721     1.4993  58.8700     6982.9429 492.6689  2634.3582    0.1870 4095.1654   0.1203
   39     3.000     64.00     1.6300   5.4010     1.8577 123.1600    13989.7202 610.4319  5277.7081    0.1157 8204.3085   0.0744

--- MELHOR MODELO REOLÓGICO AJUSTADO ---
                       Parâmetro   Valor Estimado Erro Padrão (+/-)
       Modelo Reológico Ajustado Herschel-Bulkley               N/A
Coeficiente de Determinação (R²)          0.94922               N/A
                         τ₀ (Pa)        3.833e-12           86.2839
                       K (Pa·sⁿ)         54.35905           41.5248
                           n (-)          0.27712            0.0739

Comportamento do Fluido Inferido: Viscoplástico (tensão de escoamento τ₀ ≈ 0) e Pseudoplástico (n = 0.277 < 1)

--- ARQUIVOS GERADOS NESTA SESSÃO ---
- 20251026_001351_comparativo_viscosidades.png
- 20251026_001351_curva_fluxo.png
- 20251026_001351_curva_viscosidade.png
- 20251026_001351_n_prime.png
- 20251026_001351_parametros_modelos.json
- 20251026_001351_pressao_vs_viscosidade.png
- 20251026_001351_resultados_reologicos.csv
- 20251026_001351_resumo_melhor_modelo.csv

======================================================================
FIM DO RELATÓRIO
======================================================================
