======================================================================
RELATÓRIO DE ANÁLISE REOLÓGICA
======================================================================
Sessão: 20251026_000421
Data da Geração: 2025-10-26 00:04:41
Pasta de Saída: resultados_analise_reologica\FC1-Caulim40%H2O-Capilar1.5x43_20251026_000421

--- PARÂMETROS GLOBAIS DO ENSAIO ---
Densidade da Pasta: 1.630 g/cm³
Tempo de Extrusão: Variável (ver tabela)

--- ORIGEM DOS DADOS EXPERIMENTAIS ---
Método de Entrada: Arquivo(s) JSON
  Arquivos JSON Utilizados (da pasta 'resultados_testes_reometro/'):
    - edit_Caulim40%H2O-Capilar1.5x43mm-Ensaio2_20251022_165741.json

--- CONFIGURAÇÃO DE CORREÇÕES E CALIBRAÇÃO ---
Correção de Bagley (ao vivo): Não
Correção de Mooney (ao vivo): Não

--- GEOMETRIA DO CAPILAR ÚNICO (SEM CORREÇÕES) ---
Diâmetro: 1.500 mm
Comprimento: 43.00 mm

--- RESULTADOS PRINCIPAIS (CURVA DE FLUXO PROCESSADA) ---
Ponto D_cap(mm) L_cap(mm) rho(g/cm³) t_ext(s) P_ext(bar) M_ext(g) Q_calc(mm³/s)   τw (Pa) γ̇aw (s⁻¹) ηa (Pa·s) γ̇w (s⁻¹) η (Pa·s)
    1     1.500     43.00     1.6300  20.1996     0.8289   2.6400       80.1815  722.8859   241.9917    2.9872  312.2681   2.3150
    2     1.500     43.00     1.6300  20.2053     0.8301   2.6800       81.3733  723.9185   245.5886    2.9477  316.9097   2.2843
    3     1.500     43.00     1.6300  20.2621     0.8265   2.7400       82.9618  720.8183   250.3829    2.8789  323.0963   2.2310
    4     1.500     43.00     1.6300  20.2788     0.8229   2.9100       88.0366  717.6789   265.6989    2.7011  342.8602   2.0932
    5     1.500     43.00     1.6300  20.2146     0.7836   2.9200       88.6195  683.4036   267.4582    2.5552  345.1303   1.9801
    6     1.500     43.00     1.6300  20.0933     0.8208   3.0700       93.7347  715.7801   282.8960    2.5302  365.0515   1.9608
    7     1.500     43.00     1.6300  20.2070     0.9467   3.1500       95.6360  825.6421   288.6341    2.8605  372.4560   2.2168
    8     1.500     43.00     1.6300  20.3189     0.9312   3.2700       98.7324  812.0868   297.9794    2.7253  384.5152   2.1120
    9     1.500     43.00     1.6300  20.2115     0.9404   3.2800       99.5606  820.0927   300.4789    2.7293  387.7406   2.1151
   10     1.500     43.00     1.6300  20.1976     0.9305   3.2900       99.9331  811.4954   301.6030    2.6906  389.1911   2.0851
   11     1.500     43.00     1.6300  20.3705     0.9385   3.3600      101.1927  818.4785   305.4046    2.6800  394.0968   2.0768
   12     1.500     43.00     1.6300  20.2214     0.9408   3.3500      101.6356  820.5079   306.7412    2.6749  395.8214   2.0729
   13     1.500     43.00     1.6300  20.0311     0.9421   3.3500      102.6014  821.5988   309.6559    2.6533  399.5827   2.0561
   14     1.500     43.00     1.6300  20.1578     1.0017   3.6900      112.3039  873.5860   338.9388    2.5774  437.3695   1.9974
   15     1.500     43.00     1.6300  20.1942     1.0191   3.9700      120.6082  888.7762   364.0015    2.4417  469.7107   1.8922
   16     1.500     43.00     1.6300  20.3344     1.0177   4.0500      122.1904  887.5325   368.7765    2.4067  475.8724   1.8651
   17     1.500     43.00     1.6300  20.3301     1.0019   4.0700      122.8197  873.7847   370.6760    2.3573  478.3235   1.8268
   18     1.500     43.00     1.6300  20.3769     1.0321   4.1800      125.8493  900.0899   379.8194    2.3698  490.1222   1.8365
   19     1.500     43.00     1.6300  20.3202     1.0095   4.3000      129.8235  880.3836   391.8139    2.2469  505.6000   1.7413
   20     1.500     43.00     1.6300  20.1580     1.0415   4.3200      131.4768  908.2508   396.8035    2.2889  512.0387   1.7738
   21     1.500     43.00     1.6300  20.2264     1.2258   5.3500      162.2736 1068.9722   489.7496    2.1827  631.9771   1.6915
   22     1.500     43.00     1.6300  20.2532     1.2080   5.5700      168.7231 1053.5249   509.2145    2.0689  657.0948   1.6033
   23     1.500     43.00     1.6300  20.3902     1.2428   5.7600      173.3057 1083.8650   523.0451    2.0722  674.9419   1.6059
   24     1.500     43.00     1.6300  20.1792     1.2584   5.7700      175.4224 1097.4172   529.4334    2.0728  683.1854   1.6063
   25     1.500     43.00     1.6300  20.2222     1.2340   5.9500      180.5096 1076.1377   544.7867    1.9753  702.9975   1.5308
   26     1.500     43.00     1.6300  20.4443     1.2748   6.0600      181.8501 1111.7291   548.8326    2.0256  708.2183   1.5698
   27     1.500     43.00     1.6300  20.2224     1.5165   8.3000      251.8010 1322.5193   759.9477    1.7403  980.6431   1.3486
   28     1.500     43.00     1.6300  20.2241     1.5471   8.4800      257.2402 1349.2142   776.3635    1.7379 1001.8262   1.3468
   29     1.500     43.00     1.6300  20.2203     1.4045   8.6200      261.5370 1224.8964   789.3315    1.5518 1018.5602   1.2026
   30     1.500     43.00     1.6300  20.3339     1.6153   9.3700      282.7043 1408.7184   853.2154    1.6511 1100.9965   1.2795
   31     1.500     43.00     1.6300  20.2202     1.4962   9.3200      282.7760 1304.7883   853.4319    1.5289 1101.2760   1.1848
   32     1.500     43.00     1.6300  20.2147     1.5669   9.5600      290.1372 1366.5058   875.6485    1.5606 1129.9444   1.2094
   33     1.500     43.00     1.6300  20.1022     1.6233   9.6400      294.2017 1415.6412   887.9152    1.5943 1145.7734   1.2355
   34     1.500     43.00     1.6300  20.3260     1.5931   9.9400      300.0173 1389.3707   905.4671    1.5344 1168.4226   1.1891
   35     1.500     43.00     1.6300  20.4477     1.7276  10.6000      318.0341 1506.6197   959.8425    1.5697 1238.5890   1.2164
   36     1.500     43.00     1.6300  20.2737     1.7841  10.8300      327.7229 1555.9304   989.0840    1.5731 1276.3226   1.2191
   37     1.500     43.00     1.6300  20.3028     1.7594  11.4000      344.4772 1534.3505  1039.6493    1.4758 1341.5724   1.1437
   38     1.500     43.00     1.6300  20.2481     1.7405  12.1600      368.4349 1517.9197  1111.9548    1.3651 1434.8761   1.0579
   39     1.500     43.00     1.6300  20.3039     1.7470  12.2500      370.1417 1523.5503  1117.1059    1.3638 1441.5231   1.0569
   40     1.500     43.00     1.6300  20.3311     1.8892  13.2300      399.2195 1647.5614  1204.8640    1.3674 1554.7670   1.0597
   41     1.500     43.00     1.6300  20.0970     1.6821  13.9200      424.9336 1466.9075  1282.4704    1.1438 1654.9109   0.8864
   42     1.500     43.00     1.6300  20.5027     1.8344  14.3100      428.1939 1599.7449  1292.3103    1.2379 1667.6083   0.9593
   43     1.500     43.00     1.6300  20.3284     1.7528  14.4500      436.0911 1528.6321  1316.1445    1.1614 1698.3643   0.9001
   44     1.500     43.00     1.6300  20.3281     1.7038  14.7200      444.2451 1485.8668  1340.7536    1.1082 1730.1201   0.8588
   45     1.500     43.00     1.6300  20.8199     1.6988  15.3300      451.7259 1481.5210  1363.3309    1.0867 1759.2540   0.8421
   46     1.500     43.00     1.6300  20.5160     2.0444  15.3300      458.4178 1782.9036  1383.5275    1.2887 1785.3159   0.9986
   47     1.500     43.00     1.6300  20.3295     1.9378  15.4300      465.6407 1689.9410  1405.3265    1.2025 1813.4455   0.9319
   48     1.500     43.00     1.6300  20.3899     1.8732  15.7300      473.2878 1633.5919  1428.4061    1.1436 1843.2275   0.8863
   49     1.500     43.00     1.6300  24.0874     1.9039  19.5200      497.1668 1660.3991  1500.4738    1.1066 1936.2244   0.8575
   50     1.500     43.00     1.6300  20.2913     1.7415  17.3200      523.6600 1518.7104  1580.4318    0.9609 2039.4028   0.7447
   51     1.500     43.00     1.6300  20.3357     1.7380  17.3600      523.7238 1515.7297  1580.6244    0.9589 2039.6514   0.7431
   52     1.500     43.00     1.6300  20.3627     1.9302  17.4500      525.7414 1683.3339  1586.7134    1.0609 2047.5087   0.8221
   53     1.500     43.00     1.6300  20.4969     1.9754  18.0100      539.0612 1722.7377  1626.9133    1.0589 2099.3831   0.8206
   54     1.500     43.00     1.6300  20.5007     2.0113  18.0800      541.0556 1754.0226  1632.9324    1.0742 2107.1501   0.8324
   55     1.500     43.00     1.6300  20.3277     2.0139  17.9800      542.6431 1756.2882  1637.7237    1.0724 2113.3328   0.8311
   56     1.500     43.00     1.6300  20.7306     2.5818  18.5400      548.6685 2251.5568  1655.9087    1.3597 2136.7989   1.0537
   57     1.500     43.00     1.6300  20.5545     1.9835  18.6100      555.4584 1729.7758  1676.4008    1.0318 2163.2421   0.7996
   58     1.500     43.00     1.6300  20.2959     2.0048  18.5500      560.7223 1748.3364  1692.2874    1.0331 2183.7424   0.8006
   59     1.500     43.00     1.6300  20.5872     2.5745  28.2200      840.9522 2245.1833  2538.0351    0.8846 3275.1025   0.6855
   60     1.500     43.00     1.6300  20.2986     2.5633  37.2700     1126.4347 2235.4152  3399.6354    0.6575 4386.9190   0.5096

--- MELHOR MODELO REOLÓGICO AJUSTADO ---
                       Parâmetro   Valor Estimado Erro Padrão (+/-)
       Modelo Reológico Ajustado Herschel-Bulkley               N/A
Coeficiente de Determinação (R²)          0.94254               N/A
                         τ₀ (Pa)          0.00000          274.8549
                       K (Pa·sⁿ)         59.38953           52.4536
                           n (-)          0.44248            0.0952

Comportamento do Fluido Inferido: Viscoplástico (tensão de escoamento τ₀ ≈ 0) e Pseudoplástico (n = 0.442 < 1)

--- ARQUIVOS GERADOS NESTA SESSÃO ---
- 20251026_000421_comparativo_viscosidades.png
- 20251026_000421_curva_fluxo.png
- 20251026_000421_curva_viscosidade.png
- 20251026_000421_n_prime.png
- 20251026_000421_parametros_modelos.json
- 20251026_000421_pressao_vs_viscosidade.png
- 20251026_000421_resultados_reologicos.csv
- 20251026_000421_resumo_melhor_modelo.csv

======================================================================
FIM DO RELATÓRIO
======================================================================
