======================================================================
RELATÓRIO DE ANÁLISE REOLÓGICA
======================================================================
Sessão: 20251022_174358
Data da Geração: 2025-10-22 17:44:51
Pasta de Saída: resultados_analise_reologica\teste-std1-round1-capilar1.5_20251022_174358

--- PARÂMETROS GLOBAIS DO ENSAIO ---
Densidade da Pasta: 1.630 g/cm³
Tempo de Extrusão: Variável (ver tabela)

--- ORIGEM DOS DADOS EXPERIMENTAIS ---
Método de Entrada: Arquivo(s) JSON
  Arquivos JSON Utilizados (da pasta 'resultados_testes_reometro/'):
    - limpo_residuos_22-10-2025_1.5x43mm-Caulim60H2O40_20251022_174300.json

--- CONFIGURAÇÃO DE CORREÇÕES E CALIBRAÇÃO ---
Correção de Bagley (ao vivo): Não
Correção de Mooney (ao vivo): Não

--- GEOMETRIA DO CAPILAR ÚNICO (SEM CORREÇÕES) ---
Diâmetro: 1.500 mm
Comprimento: 43.00 mm

--- RESULTADOS PRINCIPAIS (CURVA DE FLUXO PROCESSADA) ---
Ponto D_cap(mm) L_cap(mm) rho(g/cm³) t_ext(s) P_ext(bar) M_ext(g) Q_calc(mm³/s)   τw (Pa) γ̇aw (s⁻¹) ηa (Pa·s) γ̇w (s⁻¹) η (Pa·s)
    1     1.500     43.00     1.6300  20.2053     0.8301   2.6800       81.3733  723.9185   245.5886    2.9477  317.6852   2.2787
    2     1.500     43.00     1.6300  20.2621     0.8265   2.7400       82.9618  720.8183   250.3829    2.8789  323.8869   2.2255
    3     1.500     43.00     1.6300  20.2788     0.8229   2.9100       88.0366  717.6789   265.6989    2.7011  343.6992   2.0881
    4     1.500     43.00     1.6300  20.2146     0.7836   2.9200       88.6195  683.4036   267.4582    2.5552  345.9749   1.9753
    5     1.500     43.00     1.6300  20.0933     0.8208   3.0700       93.7347  715.7801   282.8960    2.5302  365.9448   1.9560
    6     1.500     43.00     1.6300  20.2070     0.9467   3.1500       95.6360  825.6421   288.6341    2.8605  373.3674   2.2113
    7     1.500     43.00     1.6300  20.3189     0.9312   3.2700       98.7324  812.0868   297.9794    2.7253  385.4561   2.1068
    8     1.500     43.00     1.6300  20.2115     0.9404   3.2800       99.5606  820.0927   300.4789    2.7293  388.6894   2.1099
    9     1.500     43.00     1.6300  20.1976     0.9305   3.2900       99.9331  811.4954   301.6030    2.6906  390.1434   2.0800
   10     1.500     43.00     1.6300  20.3705     0.9385   3.3600      101.1927  818.4785   305.4046    2.6800  395.0611   2.0718
   11     1.500     43.00     1.6300  20.2214     0.9408   3.3500      101.6356  820.5079   306.7412    2.6749  396.7900   2.0679
   12     1.500     43.00     1.6300  20.0311     0.9421   3.3500      102.6014  821.5988   309.6559    2.6533  400.5605   2.0511
   13     1.500     43.00     1.6300  20.1578     1.0017   3.6900      112.3039  873.5860   338.9388    2.5774  438.4398   1.9925
   14     1.500     43.00     1.6300  20.1942     1.0191   3.9700      120.6082  888.7762   364.0015    2.4417  470.8601   1.8876
   15     1.500     43.00     1.6300  20.3344     1.0177   4.0500      122.1904  887.5325   368.7765    2.4067  477.0369   1.8605
   16     1.500     43.00     1.6300  20.3301     1.0019   4.0700      122.8197  873.7847   370.6760    2.3573  479.4939   1.8223
   17     1.500     43.00     1.6300  20.3769     1.0321   4.1800      125.8493  900.0899   379.8194    2.3698  491.3215   1.8320
   18     1.500     43.00     1.6300  20.3202     1.0095   4.3000      129.8235  880.3836   391.8139    2.2469  506.8372   1.7370
   19     1.500     43.00     1.6300  20.1580     1.0415   4.3200      131.4768  908.2508   396.8035    2.2889  513.2916   1.7695
   20     1.500     43.00     1.6300  20.2264     1.2258   5.3500      162.2736 1068.9722   489.7496    2.1827  633.5236   1.6873
   21     1.500     43.00     1.6300  20.2532     1.2080   5.5700      168.7231 1053.5249   509.2145    2.0689  658.7027   1.5994
   22     1.500     43.00     1.6300  20.3902     1.2428   5.7600      173.3057 1083.8650   523.0451    2.0722  676.5935   1.6019
   23     1.500     43.00     1.6300  20.1792     1.2584   5.7700      175.4224 1097.4172   529.4334    2.0728  684.8571   1.6024
   24     1.500     43.00     1.6300  20.2222     1.2340   5.9500      180.5096 1076.1377   544.7867    1.9753  704.7177   1.5270
   25     1.500     43.00     1.6300  20.4443     1.2748   6.0600      181.8501 1111.7291   548.8326    2.0256  709.9513   1.5659
   26     1.500     43.00     1.6300  20.2224     1.5165   8.3000      251.8010 1322.5193   759.9477    1.7403  983.0427   1.3453
   27     1.500     43.00     1.6300  20.2241     1.5471   8.4800      257.2402 1349.2142   776.3635    1.7379 1004.2776   1.3435
   28     1.500     43.00     1.6300  20.2203     1.4045   8.6200      261.5370 1224.8964   789.3315    1.5518 1021.0526   1.1996
   29     1.500     43.00     1.6300  20.3339     1.6153   9.3700      282.7043 1408.7184   853.2154    1.6511 1103.6906   1.2764
   30     1.500     43.00     1.6300  20.2202     1.4962   9.3200      282.7760 1304.7883   853.4319    1.5289 1103.9708   1.1819
   31     1.500     43.00     1.6300  20.2147     1.5669   9.5600      290.1372 1366.5058   875.6485    1.5606 1132.7094   1.2064
   32     1.500     43.00     1.6300  20.1022     1.6233   9.6400      294.2017 1415.6412   887.9152    1.5943 1148.5771   1.2325
   33     1.500     43.00     1.6300  20.3260     1.5931   9.9400      300.0173 1389.3707   905.4671    1.5344 1171.2817   1.1862
   34     1.500     43.00     1.6300  20.4477     1.7276  10.6000      318.0341 1506.6197   959.8425    1.5697 1241.6198   1.2134
   35     1.500     43.00     1.6300  20.3039     1.7470  12.2500      370.1417 1523.5503  1117.1059    1.3638 1445.0505   1.0543
   36     1.500     43.00     1.6300  20.3311     1.8892  13.2300      399.2195 1647.5614  1204.8640    1.3674 1558.5714   1.0571
   37     1.500     43.00     1.6300  20.3284     1.7528  14.4500      436.0911 1528.6321  1316.1445    1.1614 1702.5201   0.8979
   38     1.500     43.00     1.6300  20.3281     1.7038  14.7200      444.2451 1485.8668  1340.7536    1.1082 1734.3537   0.8567
   39     1.500     43.00     1.6300  20.3899     1.8732  15.7300      473.2878 1633.5919  1428.4061    1.1436 1847.7379   0.8841
   40     1.500     43.00     1.6300  24.0874     1.9039  19.5200      497.1668 1660.3991  1500.4738    1.1066 1940.9623   0.8555
   41     1.500     43.00     1.6300  20.3357     1.7380  17.3600      523.7238 1515.7297  1580.6244    0.9589 2044.6424   0.7413
   42     1.500     43.00     1.6300  20.5007     2.0113  18.0800      541.0556 1754.0226  1632.9324    1.0742 2112.3062   0.8304
   43     1.500     43.00     1.6300  20.2959     2.0048  18.5500      560.7223 1748.3364  1692.2874    1.0331 2189.0859   0.7987
   44     1.500     43.00     1.6300  20.5872     2.5745  28.2200      840.9522 2245.1833  2538.0351    0.8846 3283.1166   0.6839
   45     1.500     43.00     1.6300  20.2986     2.5633  37.2700     1126.4347 2235.4152  3399.6354    0.6575 4397.6537   0.5083

--- MELHOR MODELO REOLÓGICO AJUSTADO ---
                       Parâmetro   Valor Estimado Erro Padrão (+/-)
       Modelo Reológico Ajustado Herschel-Bulkley               N/A
Coeficiente de Determinação (R²)          0.97002               N/A
                         τ₀ (Pa)          0.00000          211.0877
                       K (Pa·sⁿ)         61.24979           41.0808
                           n (-)          0.43681            0.0717

Comportamento do Fluido Inferido: Viscoplástico (tensão de escoamento τ₀ ≈ 0) e Pseudoplástico (n = 0.437 < 1)

--- ARQUIVOS GERADOS NESTA SESSÃO ---
- 20251022_174358_comparativo_viscosidades.png
- 20251022_174358_curva_fluxo.png
- 20251022_174358_curva_viscosidade.png
- 20251022_174358_n_prime.png
- 20251022_174358_parametros_modelos.json
- 20251022_174358_pressao_vs_viscosidade.png
- 20251022_174358_resultados_reologicos.csv
- 20251022_174358_resumo_melhor_modelo.csv

======================================================================
FIM DO RELATÓRIO
======================================================================
