======================================================================
RELATÓRIO DE ANÁLISE REOLÓGICA
======================================================================
Sessão: 20251022_152854
Data da Geração: 2025-10-22 15:29:32
Pasta de Saída: resultados_analise_reologica\testeAAA_20251022_152854

--- PARÂMETROS GLOBAIS DO ENSAIO ---
Densidade da Pasta: 1.630 g/cm³
Tempo de Extrusão: Variável (ver tabela)

--- ORIGEM DOS DADOS EXPERIMENTAIS ---
Método de Entrada: Arquivo(s) JSON
  Arquivos JSON Utilizados (da pasta 'resultados_testes_reometro/'):
    - edit_22-10-2025_2x43mm-Caulim60H2O40_20251022_144135.json

--- CONFIGURAÇÃO DE CORREÇÕES E CALIBRAÇÃO ---
Correção de Bagley (ao vivo): Não
Correção de Mooney (ao vivo): Não

--- GEOMETRIA DO CAPILAR ÚNICO (SEM CORREÇÕES) ---
Diâmetro: 2.000 mm
Comprimento: 43.00 mm

--- RESULTADOS PRINCIPAIS (CURVA DE FLUXO PROCESSADA) ---
Ponto D_cap(mm) L_cap(mm) rho(g/cm³) t_ext(s) P_ext(bar) M_ext(g) Q_calc(mm³/s)   τw (Pa) γ̇aw (s⁻¹) ηa (Pa·s) γ̇w (s⁻¹) η (Pa·s)
    1     2.000     43.00     1.6300  20.2023     0.4849   4.1100      124.8112  563.8880   158.9145    3.5484  219.2274   2.5722
    2     2.000     43.00     1.6300  20.1950     0.5084   4.1900      127.2868  591.1764   162.0665    3.6477  223.5757   2.6442
    3     2.000     43.00     1.6300  20.0870     0.5165   4.2600      130.1090  600.6309   165.6600    3.6257  228.5330   2.6282
    4     2.000     43.00     1.6300  20.3201     0.5392   4.3100      130.1260  627.0122   165.6816    3.7844  228.5628   2.7433
    5     2.000     43.00     1.6300  20.2129     0.5106   4.3800      132.9406  593.7457   169.2653    3.5078  233.5066   2.5427
    6     2.000     43.00     1.6300  19.9926     0.5210   4.3800      134.4057  605.8152   171.1307    3.5401  236.0800   2.5661
    7     2.000     43.00     1.6300  20.2143     0.5324   4.7200      143.2506  619.0273   182.3924    3.3939  251.6158   2.4602
    8     2.000     43.00     1.6300  20.2688     0.5546   5.1200      154.9720  644.9021   197.3165    3.2684  272.2042   2.3692
    9     2.000     43.00     1.6300  19.9914     0.5700   5.1800      158.9639  662.7894   202.3991    3.2747  279.2158   2.3738
   10     2.000     43.00     1.6300  20.3139     0.5695   5.2800      159.4603  662.2292   203.0312    3.2617  280.0877   2.3644
   11     2.000     43.00     1.6300  10.3166     0.5760   2.7100      161.1547  669.8206   205.1886    3.2644  283.0639   2.3663
   12     2.000     43.00     1.6300  20.2615     0.5616   5.3500      161.9924  652.9697   206.2552    3.1658  284.5353   2.2949
   13     2.000     43.00     1.6300  20.1095     0.5687   5.3200      162.3019  661.2529   206.6492    3.1999  285.0789   2.3195
   14     2.000     43.00     1.6300  20.4286     0.5768   5.6300      169.0765  670.6576   215.2749    3.1154  296.9783   2.2583
   15     2.000     43.00     1.6300  20.2065     0.7595   9.1800      278.7172  883.1206   354.8737    2.4885  489.5591   1.8039
   16     2.000     43.00     1.6300  20.2659     0.7663   9.2400      279.7172  891.0312   356.1470    2.5019  491.3156   1.8136
   17     2.000     43.00     1.6300  20.0923     0.7620   9.1900      280.6075  886.0397   357.2805    2.4800  492.8794   1.7977
   18     2.000     43.00     1.6300  20.2023     0.7714   9.3000      282.4200  896.9408   359.5883    2.4944  496.0630   1.8081
   19     2.000     43.00     1.6300  20.2024     0.7590   9.6700      293.6536  882.5154   373.8914    2.3604  515.7945   1.7110
   20     2.000     43.00     1.6300  20.2189     0.7571   9.8300      298.2691  880.3129   379.7680    2.3180  523.9016   1.6803
   21     2.000     43.00     1.6300  10.1088     0.9043   6.6700      404.7993 1051.5205   515.4065    2.0402  711.0190   1.4789
   22     2.000     43.00     1.6300  10.2253     0.8960   6.7700      406.1863 1041.8231   517.1724    2.0145  713.4552   1.4603
   23     2.000     43.00     1.6300   9.8821     0.8938   6.6700      414.0830 1039.3296   527.2268    1.9713  727.3255   1.4290
   24     2.000     43.00     1.6300  10.3314     0.9013   6.9900      415.0791 1047.9914   528.4952    1.9830  729.0752   1.4374
   25     2.000     43.00     1.6300  10.2215     0.9185   7.5100      450.7500 1067.9711   573.9127    1.8609  791.7301   1.3489
   26     2.000     43.00     1.6300  10.2925     0.9220   7.7300      460.7555 1072.0853   586.6522    1.8275  809.3046   1.3247
   27     2.000     43.00     1.6300  10.2280     1.2389  14.8100      888.3328 1440.5454  1131.0604    1.2736 1560.3323   0.9232
   28     2.000     43.00     1.6300  10.0994     1.2336  15.0500      914.2256 1434.3716  1164.0282    1.2322 1605.8124   0.8932
   29     2.000     43.00     1.6300  10.2177     1.2430  15.6100      937.2666 1445.3473  1193.3649    1.2112 1646.2832   0.8779
   30     2.000     43.00     1.6300  10.2290     1.2715  15.8600      951.2274 1478.4674  1211.1403    1.2207 1670.8050   0.8849
   31     2.000     43.00     1.6300  10.2216     1.2513  15.9100      954.9128 1454.9438  1215.8328    1.1967 1677.2784   0.8674
   32     2.000     43.00     1.6300  10.2235     1.2607  16.6800     1000.9462 1465.9863  1274.4443    1.1503 1758.1347   0.8338
   33     2.000     43.00     1.6300  10.1187     1.2725  16.6400     1008.8800 1479.6930  1284.5459    1.1519 1772.0703   0.8350
   34     2.000     43.00     1.6300  10.5601     1.4435  27.9400     1623.2014 1678.5007  2066.7242    0.8122 2851.1091   0.5887
   35     2.000     43.00     1.6300  10.5123     1.5916  37.3400     2179.1501 1850.7089  2774.5801    0.6670 3827.6179   0.4835
   36     2.000     43.00     1.6300  10.2992     1.6289  37.8100     2252.2428 1894.0810  2867.6446    0.6605 3956.0032   0.4788
   37     2.000     43.00     1.6300  10.2280     1.6511  37.6800     2260.1217 1919.9038  2877.6763    0.6672 3969.8422   0.4836
   38     2.000     43.00     1.6300  10.0770     1.6956  39.2400     2388.9592 1971.5788  3041.7173    0.6482 4196.1418   0.4699
   39     2.000     43.00     1.6300  10.2999     1.7288  48.9800     2917.4204 2010.2714  3714.5750    0.5412 5124.3695   0.3923
   40     2.000     43.00     1.6300  10.3313     1.7404  49.3100     2928.1538 2023.6990  3728.2412    0.5428 5143.2224   0.3935
   41     2.000     43.00     1.6300  10.4518     1.7062  51.3200     3012.3708 1983.9157  3835.4697    0.5173 5291.1474   0.3750
   42     2.000     43.00     1.6300  10.1003     1.7468  55.0200     3341.9430 2031.1993  4255.0940    0.4774 5870.0320   0.3460

--- MELHOR MODELO REOLÓGICO AJUSTADO ---
                       Parâmetro   Valor Estimado Erro Padrão (+/-)
       Modelo Reológico Ajustado Herschel-Bulkley               N/A
Coeficiente de Determinação (R²)          0.98532               N/A
                         τ₀ (Pa)          0.00000          155.6369
                       K (Pa·sⁿ)         88.59391           42.4500
                           n (-)          0.36892            0.0481

Comportamento do Fluido Inferido: Viscoplástico (tensão de escoamento τ₀ ≈ 0) e Pseudoplástico (n = 0.369 < 1)

--- ARQUIVOS GERADOS NESTA SESSÃO ---
- 20251022_152854_comparativo_viscosidades.png
- 20251022_152854_curva_fluxo.png
- 20251022_152854_curva_viscosidade.png
- 20251022_152854_n_prime.png
- 20251022_152854_parametros_modelos.json
- 20251022_152854_pressao_vs_viscosidade.png
- 20251022_152854_resultados_reologicos.csv
- 20251022_152854_resumo_melhor_modelo.csv

======================================================================
FIM DO RELATÓRIO
======================================================================
